File: Optical/Glass_ALEO_T.csv
Wavelength (nm),Transmittance (%)
300,34.2982
310,56.2043
320,72.4119
330,81.6163
340,86.2791
350,88.2713
360,89.0687
370,89.5489
380,89.5526
390,89.7675
400,90.079
410,90.1503
420,90.1554
430,90.1272
440,90.1855
450,90.2815
460,90.3667
470,90.3896
480,90.4397
490,90.3999
500,90.5273
510,90.5676
520,90.5668
530,90.6161
540,90.6326
550,90.6698
560,90.6678
570,90.6783
580,90.6869
590,90.6543
600,90.6388
610,90.7205
620,90.7217
630,90.6668
640,90.7835
650,90.7456
660,90.6872
670,90.6516
680,90.658
690,90.7385
700,90.6323
710,90.775
720,90.7359
730,90.8151
740,90.6863
750,90.8132
760,90.7692
770,90.8645
780,90.671
790,90.56963
800,90.7192
810,90.7244
820,90.6497
830,90.6411
840,90.6326
850,90.6241
860,90.6156
870,90.6071
880,90.5986
890,90.5901
900,90.5816
910,90.5731
920,90.5631
930,90.5443
940,90.6049
950,90.5791
960,90.6437
970,90.5969
980,90.6479
990,90.6024
1000,90.6342
1010,90.5579
1020,90.582
1030,90.6162
1040,90.626
1050,90.5551
1060,90.5974
1070,90.5802
1080,90.60294
1090,90.5658
1100,90.5947
1110,90.5891
1120,90.5936
1130,90.627
1140,90.5886
1150,90.5758
1160,90.5554
1170,90.5696
1180,90.5704
1190,90.5598
1200,90.5542
1210,90.5724
1220,90.5526
1230,90.571
1240,90.5709
1250,90.5776
1260,90.5738
1270,90.606
1280,90.6027
1290,90.6023
1300,90.5975
1310,90.5916
1320,90.573
1330,90.58
1340,90.6016
1350,90.5984
1360,90.5452
1370,90.52
1380,90.51395
1390,90.4256
1400,90.25454
1410,90.1567
1420,90.1319
1430,90.1493
1440,90.2221
1450,90.2294
1460,90.2711
1470,90.2791
1480,90.3496
1490,90.3356
1500,90.3558
1510,90.3644
1520,90.3927
1530,90.3867
1540,90.3964
1550,90.3996
1560,90.3846
1570,90.3512
1580,90.3841
1590,90.37386
1600,90.3548
1610,90.3338
1620,90.3701
1630,90.3321
1640,90.3265
1650,90.3224
1660,90.2951
1670,90.3132
1680,90.2724
1690,90.2671
1700,90.2172
1710,90.1327
1720,90.1186
1730,90.11912
1740,90.0715
1750,89.9729
1760,90.0008
1770,89.9339
1780,89.993
1790,89.8786
1800,89.8518
1810,89.7951
1820,89.8255
1830,89.83452
1840,89.8585
1850,89.8421
1860,89.7098
1870,89.639
1880,89.6232
1890,89.4834
1900,89.3523
1910,89.3398
1920,89.27638
1930,89.0684
1940,89.1407
1950,89.0183
1960,89.1036
1970,89.083
1980,89.0247
1990,89.0471
2000,89.0162
2010,89.1717
2020,89.16515
2030,89.3006
2040,89.1289
2050,89.04225
2060,89.171
2070,89.1779
2080,89.008
2090,88.8832
2100,88.8944
2110,88.8165
2120,88.7852
2130,88.7538
2140,88.7224
2150,88.691
2160,88.6596
2170,88.6283
2180,88.5969
2190,88.5655
2200,88.5341
2210,88.5027
2220,88.4714
2230,88.44
2240,88.4086
2250,88.3772
2260,88.3458
2270,88.3145
2280,88.2831
2290,88.2517
2300,88.2203
2310,88.189
2320,88.1576
2330,88.1262
2340,88.0948
2350,88.0634
2360,88.0321
2370,88.0007
2380,87.9693
2390,87.9379
2400,87.9065
2410,87.8752
2420,87.8438
2430,87.8124
2440,87.781
2450,87.7496
2460,87.7183
2470,87.6869
2480,87.6555
2490,87.6241
2500,87.5928
2510,87.5614
2520,87.53
2530,87.4986
2540,87.4672
2550,87.4359
2560,87.4045
2570,87.3731
2580,87.3417
2590,87.3103
2600,87.279
2610,87.2476
2620,87.2162
2630,87.1848
2640,87.1534
2650,87.1221
2660,87.0907
2670,87.0593
2680,87.0279
2690,86.9965
2700,86.9652
2710,86.9338
2720,86.9024
2730,86.871
2740,86.8397
2750,86.8083
2760,86.7769
2770,86.7455
2780,86.7141
2790,86.6828
2800,86.6514
2810,86.62